#Acq. time (s)=	15
#Accumulations=	10
#Range (cm-¹)=	1000...3000
#Windows=	1
#Auto scanning=	Off
#Autofocus=	At all pixels
#SWIFT=	Off
#Macrospot=	Off
#AutoExposure=	Off
#Spike filter=	Multiple accum.
#Delay time (s)=	0
#Binning=	1
#Readout mode=	Signal
#DeNoise=	Off
#ICS correction=	Off
#Dark correction=	Off
#Inst. Process=	Off
#Detector Gain=	Best Dynamic Range
#Detector ADC=	45 kHz       
#Detector temperature (°C)=	-60.1
#Instrument=	LabRAM HR Evol
#Detector=	Syncerity OE
#Objective=	x100_VIS_LWD
#Grating=	300 (600nm)
#ND Filter=	25%
#Laser=	633nm_Edge
#Hole=	199.981
#Range=	Visible
#StageXY=	75x50mm Scan+
#StageZ=	Z motor
#X (µm)=	0
#Y (µm)=	0
#Z (µm)=	-3272.4
#Full time(hh:mm)=	44:42
#Project=	
#Sample=	
#Site=	
#Title=	operando_long_15s_x10_25p
#Remark=	
#Date=	23.09.2024 11:15
#Acquired=	23.09.2024 11:15:29
#AxisType[0]=Intens
#AxisUnit[0]=Cnt
#AxisType[1]=Spectr
#AxisUnit[1]=1/cm
#AxisType[2]=Time
#AxisUnit[2]=sec
	1000.94	1003.27	1005.6	1007.93	1010.26	1012.59	1014.91	1017.24	1019.57	1021.89	1024.22	1026.54	1028.86	1031.18	1033.5	1035.82	1038.15	1040.46	1042.78	1045.1	1047.42	1049.73	1052.05	1054.36	1056.68	1058.99	1061.3	1063.61	1065.92	1068.23	1070.54	1072.85	1075.16	1077.47	1079.77	1082.08	1084.38	1086.69	1088.99	1091.29	1093.6	1095.9	1098.2	1100.5	1102.8	1105.1	1107.39	1109.69	1111.99	1114.28	1116.58	1118.87	1121.16	1123.46	1125.75	1128.04	1130.33	1132.62	1134.91	1137.2	1139.48	1141.77	1144.06	1146.34	1148.63	1150.91	1153.19	1155.48	1157.76	1160.04	1162.32	1164.6	1166.88	1169.15	1171.43	1173.71	1175.98	1178.26	1180.53	1182.81	1185.08	1187.35	1189.62	1191.9	1194.17	1196.44	1198.7	1200.97	1203.24	1205.51	1207.77	1210.04	1212.3	1214.56	1216.83	1219.09	1221.35	1223.61	1225.87	1228.13	1230.39	1232.65	1234.91	1237.16	1239.42	1241.67	1243.93	1246.18	1248.43	1250.69	1252.94	1255.19	1257.44	1259.69	1261.94	1264.19	1266.43	1268.68	1270.93	1273.17	1275.41	1277.66	1279.9	1282.14	1284.39	1286.63	1288.87	1291.11	1293.35	1295.58	1297.82	1300.06	1302.29	1304.53	1306.76	1309	1311.23	1313.46	1315.7	1317.93	1320.16	1322.39	1324.61	1326.84	1329.07	1331.3	1333.52	1335.75	1337.98	1340.2	1342.42	1344.65	1346.87	1349.09	1351.31	1353.53	1355.75	1357.97	1360.18	1362.4	1364.62	1366.83	1369.05	1371.26	1373.48	1375.69	1377.9	1380.11	1382.33	1384.54	1386.75	1388.95	1391.16	1393.37	1395.58	1397.78	1399.99	1402.19	1404.4	1406.6	1408.8	1411.01	1413.21	1415.41	1417.61	1419.81	1422	1424.2	1426.4	1428.6	1430.79	1432.99	1435.18	1437.38	1439.57	1441.76	1443.95	1446.14	1448.33	1450.52	1452.71	1454.9	1457.09	1459.28	1461.46	1463.65	1465.83	1468.02	1470.2	1472.38	1474.57	1476.75	1478.93	1481.11	1483.29	1485.47	1487.65	1489.82	1492	1494.18	1496.35	1498.53	1500.7	1502.87	1505.05	1507.22	1509.39	1511.56	1513.73	1515.9	1518.07	1520.24	1522.4	1524.57	1526.74	1528.9	1531.07	1533.23	1535.39	1537.56	1539.72	1541.88	1544.04	1546.2	1548.36	1550.52	1552.68	1554.83	1556.99	1559.15	1561.3	1563.46	1565.61	1567.76	1569.92	1572.07	1574.22	1576.37	1578.52	1580.67	1582.82	1584.97	1587.11	1589.26	1591.41	1593.55	1595.7	1597.84	1599.99	1602.13	1604.27	1606.41	1608.55	1610.69	1612.83	1614.97	1617.11	1619.25	1621.38	1623.52	1625.66	1627.79	1629.92	1632.06	1634.19	1636.32	1638.45	1640.59	1642.72	1644.85	1646.97	1649.1	1651.23	1653.36	1655.48	1657.61	1659.73	1661.86	1663.98	1666.11	1668.23	1670.35	1672.47	1674.59	1676.71	1678.83	1680.95	1683.07	1685.19	1687.3	1689.42	1691.53	1693.65	1695.76	1697.87	1699.99	1702.1	1704.21	1706.32	1708.43	1710.54	1712.65	1714.76	1716.87	1718.97	1721.08	1723.19	1725.29	1727.39	1729.5	1731.6	1733.7	1735.8	1737.91	1740.01	1742.11	1744.21	1746.3	1748.4	1750.5	1752.6	1754.69	1756.79	1758.88	1760.98	1763.07	1765.16	1767.26	1769.35	1771.44	1773.53	1775.62	1777.71	1779.8	1781.88	1783.97	1786.06	1788.14	1790.23	1792.31	1794.4	1796.48	1798.56	1800.64	1802.73	1804.81	1806.89	1808.97	1811.05	1813.12	1815.2	1817.28	1819.35	1821.43	1823.51	1825.58	1827.65	1829.73	1831.8	1833.87	1835.94	1838.01	1840.08	1842.15	1844.22	1846.29	1848.36	1850.42	1852.49	1854.56	1856.62	1858.68	1860.75	1862.81	1864.88	1866.94	1869	1871.06	1873.12	1875.18	1877.24	1879.3	1881.35	1883.41	1885.47	1887.52	1889.58	1891.63	1893.69	1895.74	1897.79	1899.84	1901.89	1903.95	1906	1908.05	1910.09	1912.14	1914.19	1916.24	1918.28	1920.33	1922.37	1924.42	1926.46	1928.51	1930.55	1932.59	1934.63	1936.67	1938.71	1940.75	1942.79	1944.83	1946.87	1948.91	1950.94	1952.98	1955.01	1957.05	1959.08	1961.12	1963.15	1965.18	1967.21	1969.25	1971.27	1973.31	1975.33	1977.36	1979.39	1981.42	1983.45	1985.47	1987.5	1989.52	1991.55	1993.57	1995.59	1997.62	1999.64	2001.66	2003.68	2005.7	2007.72	2009.74	2011.76	2013.77	2015.79	2017.81	2019.82	2021.84	2023.85	2025.87	2027.88	2029.9	2031.91	2033.92	2035.93	2037.94	2039.95	2041.96	2043.97	2045.98	2047.98	2049.99	2052	2054	2056.01	2058.01	2060.02	2062.02	2064.02	2066.03	2068.03	2070.03	2072.03	2074.03	2076.03	2078.03	2080.02	2082.02	2084.02	2086.01	2088.01	2090	2092	2093.99	2095.99	2097.98	2099.97	2101.96	2103.95	2105.94	2107.93	2109.92	2111.91	2113.9	2115.88	2117.87	2119.86	2121.84	2123.83	2125.81	2127.8	2129.78	2131.76	2133.74	2135.73	2137.71	2139.69	2141.67	2143.65	2145.62	2147.6	2149.58	2151.56	2153.53	2155.51	2157.48	2159.46	2161.43	2163.4	2165.38	2167.35	2169.32	2171.29	2173.26	2175.23	2177.2	2179.17	2181.14	2183.1	2185.07	2187.04	2189	2190.97	2192.93	2194.89	2196.86	2198.82	2200.78	2202.74	2204.71	2206.67	2208.63	2210.58	2212.54	2214.5	2216.46	2218.42	2220.37	2222.33	2224.28	2226.24	2228.19	2230.14	2232.1	2234.05	2236	2237.95	2239.9	2241.85	2243.8	2245.75	2247.7	2249.65	2251.59	2253.54	2255.49	2257.43	2259.38	2261.32	2263.26	2265.21	2267.15	2269.09	2271.03	2272.97	2274.92	2276.85	2278.79	2280.73	2282.67	2284.61	2286.54	2288.48	2290.42	2292.35	2294.29	2296.22	2298.15	2300.09	2302.02	2303.95	2305.88	2307.81	2309.74	2311.67	2313.6	2315.53	2317.46	2319.38	2321.31	2323.24	2325.16	2327.09	2329.01	2330.94	2332.86	2334.78	2336.7	2338.62	2340.55	2342.47	2344.39	2346.3	2348.22	2350.14	2352.06	2353.98	2355.89	2357.81	2359.72	2361.64	2363.55	2365.47	2367.38	2369.29	2371.21	2373.12	2375.03	2376.94	2378.85	2380.76	2382.67	2384.57	2386.48	2388.39	2390.3	2392.2	2394.11	2396.01	2397.91	2399.82	2401.72	2403.62	2405.53	2407.43	2409.33	2411.23	2413.13	2415.03	2416.93	2418.82	2420.72	2422.62	2424.52	2426.41	2428.31	2430.2	2432.1	2433.99	2435.88	2437.78	2439.67	2441.56	2443.45	2445.34	2447.23	2449.12	2451.01	2452.9	2454.79	2456.67	2458.56	2460.44	2462.33	2464.21	2466.1	2467.98	2469.87	2471.75	2473.63	2475.51	2477.39	2479.28	2481.15	2483.03	2484.91	2486.79	2488.67	2490.55	2492.42	2494.3	2496.18	2498.05	2499.93	2501.8	2503.67	2505.55	2507.42	2509.29	2511.16	2513.03	2514.9	2516.77	2518.64	2520.51	2522.38	2524.25	2526.11	2527.98	2529.84	2531.71	2533.58	2535.44	2537.3	2539.17	2541.03	2542.89	2544.75	2546.61	2548.48	2550.34	2552.2	2554.05	2555.91	2557.77	2559.63	2561.48	2563.34	2565.2	2567.05	2568.91	2570.76	2572.61	2574.47	2576.32	2578.17	2580.02	2581.87	2583.72	2585.57	2587.42	2589.27	2591.12	2592.97	2594.82	2596.66	2598.51	2600.35	2602.2	2604.04	2605.89	2607.73	2609.57	2611.42	2613.26	2615.1	2616.94	2618.78	2620.62	2622.46	2624.3	2626.14	2627.98	2629.81	2631.65	2633.49	2635.32	2637.16	2638.99	2640.82	2642.66	2644.49	2646.32	2648.16	2649.99	2651.82	2653.65	2655.48	2657.31	2659.14	2660.96	2662.79	2664.62	2666.45	2668.27	2670.1	2671.92	2673.75	2675.57	2677.39	2679.22	2681.04	2682.86	2684.68	2686.5	2688.33	2690.15	2691.96	2693.78	2695.6	2697.42	2699.24	2701.05	2702.87	2704.69	2706.5	2708.31	2710.13	2711.94	2713.76	2715.57	2717.38	2719.19	2721	2722.81	2724.62	2726.43	2728.24	2730.05	2731.86	2733.67	2735.47	2737.28	2739.09	2740.89	2742.7	2744.5	2746.31	2748.11	2749.91	2751.71	2753.52	2755.32	2757.12	2758.92	2760.72	2762.52	2764.32	2766.11	2767.91	2769.71	2771.51	2773.3	2775.1	2776.89	2778.69	2780.48	2782.28	2784.07	2785.86	2787.65	2789.45	2791.24	2793.03	2794.82	2796.61	2798.4	2800.19	2801.97	2803.76	2805.55	2807.34	2809.12	2810.91	2812.69	2814.48	2816.26	2818.04	2819.83	2821.61	2823.39	2825.17	2826.95	2828.73	2830.51	2832.29	2834.07	2835.85	2837.63	2839.41	2841.18	2842.96	2844.74	2846.51	2848.29	2850.06	2851.84	2853.61	2855.38	2857.15	2858.93	2860.7	2862.47	2864.24	2866.01	2867.78	2869.55	2871.32	2873.08	2874.85	2876.62	2878.39	2880.15	2881.92	2883.68	2885.45	2887.21	2888.97	2890.74	2892.5	2894.26	2896.02	2897.78	2899.55	2901.31	2903.07	2904.82	2906.58	2908.34	2910.1	2911.86	2913.61	2915.37	2917.12	2918.88	2920.63	2922.39	2924.14	2925.9	2927.65	2929.4	2931.15	2932.9	2934.65	2936.4	2938.15	2939.9	2941.65	2943.4	2945.15	2946.9	2948.64	2950.39	2952.13	2953.88	2955.62	2957.37	2959.11	2960.86	2962.6	2964.34	2966.08	2967.82	2969.56	2971.31	2973.04	2974.78	2976.52	2978.26	2980	2981.74	2983.48	2985.21	2986.95	2988.68	2990.42	2992.15	2993.89	2995.62	2997.35	2999.09
